# label : detector calibration 11. 03. 2015
# y : intensity
#y2 time y1
0.3612 0.01 0.0112
0.6876 0.02 0.3823
0.9486 0.03 0.0395
1.2705 0.04 0.8024
1.5015 0.05 0.0686
1.8032 0.06 1.1678
1.8108 0.07 0.1187
1.9237 0.08 1.4734
2.1818 0.09 0.1817
2.0218 0.1 1.6577
1.9085 0.11 0.231
1.9959 0.12 2.2525
1.7214 0.13 0.3086
1.4623 0.14 2.3947
1.2139 0.15 0.4376
1.0192 0.16 2.5679
0.7078 0.17 0.5581
0.3965 0.18 2.5757
0.1103 0.19 0.7458
-0.1647 0.2 2.8146
-0.3885 0.21 0.9097
-0.6298 0.22 2.5929
-0.9009 0.23 1.0055
-0.931 0.24 2.4453
-1.1697 0.25 1.2179
-1.1998 0.26 2.3913
-1.2847 0.27 1.3264
-1.0987 0.28 2.7365
-1.0151 0.29 1.7311
-1.054 0.3 2.2556
-0.8808 0.31 1.6544
-0.7172 0.32 2.1241
-0.5575 0.33 1.7864
-0.3107 0.34 2.0457
-0.1347 0.35 1.972
0.0449 0.36 1.7591
0.2289 0.37 2.2166
0.422 0.38 1.4511
0.5734 0.39 2.4302
0.7174 0.4 1.1158
0.7591 0.41 2.3746
0.9292 0.42 0.9086
0.9027 0.43 2.4816
1.0244 0.44 0.6775
0.9532 0.45 2.1715
0.9464 0.46 0.3737
0.9585 0.47 2.1036
0.8095 0.48 0.1761
0.8093 0.49 1.8904
0.6848 0.5 -0.0361
0.6927 0.51 1.9841
0.5752 0.52 -0.2077
0.5699 0.53 1.5534
0.5343 0.54 -0.3682
0.4796 0.55 1.3757
0.4612 0.56 -0.5161
0.5053 0.57 1.0597
0.506 0.58 -0.5595
0.5615 0.59 0.7459
0.671 0.6 -0.6191
0.7548 0.61 0.4118
0.7834 0.62 -0.6705
0.8285 0.63 0.0126
1.0 0.64 -0.7813
1.0265 0.65 -0.3527
1.0906 0.66 -0.7758
1.083 0.67 -0.7283
1.1258 0.68 -0.8128
1.2465 0.69 -1.0679
1.1197 0.7 -0.7201
1.2031 0.71 -1.532
0.9808 0.72 -0.7466
0.8482 0.73 -1.6641
0.8107 0.74 -0.8468
0.6117 0.75 -2.1556
0.478 0.76 -0.7917
0.2583 0.77 -2.4576
0.0892 0.78 -0.8821
-0.0967 0.79 -2.3827
-0.2505 0.8 -0.7624
-0.4433 0.81 -2.6527
-0.5521 0.82 -0.8159
-0.6409 0.83 -3.1728
-0.7592 0.84 -1.012
-0.851 0.85 -3.1629
-0.8301 0.86 -0.9193
-0.647 0.87 -2.7236
-0.6307 0.88 -1.0712
-0.4997 0.89 -2.9195
-0.2964 0.9 -1.2371
-0.0471 0.91 -2.8753
0.2244 0.92 -1.2973
0.4926 0.93 -2.3954
0.7258 0.94 -1.3986
1.1391 0.95 -2.4453
1.356 0.96 -1.4547
1.5707 0.97 -2.2542
1.9949 0.98 -1.6531
2.2695 0.99 -1.7245
2.2466 1.0 -1.4899
2.3449 1.01 -1.5037
2.5557 1.02 -1.6942
2.6578 1.03 -1.2458
2.5222 1.04 -1.6271
2.8019 1.05 -0.893
2.8232 1.06 -1.6178
2.5016 1.07 -0.6489
2.2769 1.08 -1.8056
2.0567 1.09 -0.3214
1.6786 1.1 -1.581
1.3581 1.11 -0.0028
1.091 1.12 -1.5835
0.7673 1.13 0.2739
0.3807 1.14 -1.5354
0.1 1.15 0.5717
-0.1716 1.16 -1.3392
-0.4804 1.17 0.8454
-0.6606 1.18 -1.1864
-0.7623 1.19 0.9222
-0.8882 1.2 -0.8214
-1.0281 1.21 1.1128
-1.0759 1.22 -0.6371
-0.9669 1.23 1.3891
-0.8035 1.24 -0.281
-0.7106 1.25 1.5076
-0.5788 1.26 0.0186
-0.3375 1.27 1.483
-0.0577 1.28 0.3523
0.2097 1.29 1.4652
0.5049 1.3 0.6836
0.7485 1.31 1.5193
1.137 1.32 1.1225
1.2436 1.33 1.313
1.4697 1.34 1.4343
1.984 1.35 1.3439
2.1045 1.36 1.6742
1.9853 1.37 1.3469
2.2909 1.38 2.1116
2.4878 1.39 1.4219
2.2669 1.4 2.2796
2.2569 1.41 1.1856
2.1228 1.42 2.5156
2.1826 1.43 1.2655
1.916 1.44 2.8646
1.9048 1.45 1.2211
1.6008 1.46 3.059
1.4655 1.47 0.9702
1.4653 1.48 2.8004
1.117 1.49 0.9209
0.9619 1.5 3.1681
0.9129 1.51 0.8898
0.679 1.52 2.8447
0.6144 1.53 0.9658
0.5708 1.54 2.9098
0.4691 1.55 1.0157
0.5055 1.56 2.9222
0.4423 1.57 0.883
0.5337 1.58 2.4021
0.5394 1.59 1.0624
0.6136 1.6 2.4715
0.6324 1.61 0.9672
0.6779 1.62 2.2189
0.7962 1.63 1.0932
0.8485 1.64 1.7085
0.9577 1.65 1.0994
0.8974 1.66 1.4995
0.9074 1.67 1.1706
1.0328 1.68 0.9602
0.9408 1.69 1.1787
0.9602 1.7 0.65
0.9018 1.71 1.0788
0.9089 1.72 0.2812
0.7115 1.73 1.1331
0.6409 1.74 -0.0677
0.6385 1.75 0.9616
0.5522 1.76 -0.4058
0.4286 1.77 0.9607
0.4175 1.78 -0.6992
0.3482 1.79 0.7414
0.2783 1.8 -1.0318
0.2764 1.81 0.7227
0.3062 1.82 -1.2775
0.3998 1.83 0.4857
0.4684 1.84 -1.413
0.5495 1.85 0.3525
0.6885 1.86 -1.796
0.7842 1.87 0.1186
0.9722 1.88 -2.0161
1.2217 1.89 -0.1311
1.4126 1.9 -1.8088
1.734 1.91 -0.4203
1.8244 1.92 -2.2445
1.9163 1.93 -0.6562
2.168 1.94 -1.8953
2.1549 1.95 -0.959
2.3756 1.96 -1.9786
2.3117 1.97 -1.1452
2.365 1.98 -1.8192
2.5328 1.99 -1.4745
2.6074 2.0 -2.0479
2.2141 2.01 -1.7292
2.1399 2.02 -1.6964
2.0256 2.03 -2.2307
1.6597 2.04 -1.5323
1.5176 2.05 -2.1146
1.2323 2.06 -1.6071
0.8532 2.07 -2.36
0.4865 2.08 -1.3561
0.1939 2.09 -2.7703
-0.0774 2.1 -1.1887
-0.3556 2.11 -2.532
-0.5389 2.12 -1.2074
-0.8233 2.13 -3.0529
-0.9269 2.14 -0.9489
-0.9969 2.15 -2.674
-1.0855 2.16 -0.7891
-1.0238 2.17 -2.845
-0.9045 2.18 -0.7726
-0.7801 2.19 -2.7463
-0.6787 2.2 -0.5823
-0.4308 2.21 -2.6798
-0.1362 2.22 -0.5451
0.1544 2.23 -2.2873
0.458 2.24 -0.4567
0.8379 2.25 -2.1761
1.1653 2.26 -0.4549
1.3371 2.27 -1.6895
1.7036 2.28 -0.4033
2.2099 2.29 -1.4265
2.301 2.3 -0.3603
2.6168 2.31 -1.1106
2.4825 2.32 -0.3692
2.8083 2.33 -0.7471
2.9369 2.34 -0.3272
2.7377 2.35 -0.3448
2.7672 2.36 -0.3128
2.5412 2.37 0.0785
2.322 2.38 -0.3228
2.3833 2.39 0.4596
1.8376 2.4 -0.2749
1.7452 2.41 0.8479
1.5179 2.42 -0.225
1.2048 2.43 1.2325
0.8197 2.44 -0.1405
0.5655 2.45 1.4837
0.3141 2.46 -0.052
0.0756 2.47 1.6944
-0.124 2.48 0.0559
-0.2983 2.49 1.9419
-0.4061 2.5 0.1758
-0.49 2.51 2.397
-0.5303 2.52 0.3621
-0.5503 2.53 2.4254
-0.5362 2.54 0.5408
-0.4052 2.55 2.5255
-0.3561 2.56 0.6924
-0.1812 2.57 2.3031
-0.0565 2.58 0.8463
0.1131 2.59 2.5361
0.2609 2.6 1.1999
0.3992 2.61 2.5555
0.581 2.62 1.315
0.7049 2.63 2.4048
0.8053 2.64 1.5102
0.9375 2.65 2.2453
1.0853 2.66 1.8717
1.027 2.67 1.9738
1.146 2.68 1.8763
1.0916 2.69 1.7976
1.0715 2.7 2.2911
1.0991 2.71 1.619
1.0046 2.72 2.3523
0.9286 2.73 1.4798
0.8782 2.74 2.1849
0.7946 2.75 1.3749
0.6878 2.76 2.5767
0.7107 2.77 1.0532
0.633 2.78 2.5761
0.5736 2.79 0.8032
0.5707 2.8 2.6401
0.5874 2.81 0.6315
0.5826 2.82 2.3977
0.6319 2.83 0.3803
0.7329 2.84 2.4514
0.7023 2.85 0.2478
0.7968 2.86 2.144
0.8414 2.87 0.081
1.0358 2.88 2.0928
1.1737 2.89 -0.0649
1.1586 2.9 1.5246
1.1313 2.91 -0.1745
1.3294 2.92 1.3265
1.2072 2.93 -0.2858
1.2196 2.94 1.031
1.132 2.95 -0.3652
1.1243 2.96 0.7557
1.0132 2.97 -0.4186
0.861 2.98 0.3202
0.7474 2.99 -0.3828
0.4767 3.0 -0.0545
0.3282 3.01 -0.4851
0.0862 3.02 -0.4093
-0.1301 3.03 -0.4298
-0.3769 3.04 -0.7619
-0.5892 3.05 -0.4376
-0.8285 3.06 -1.204
-0.9561 3.07 -0.5247
-1.0216 3.08 -1.6453
-1.1145 3.09 -0.5007
-1.1959 3.1 -1.7401
-1.2505 3.11 -0.5768
-1.1155 3.12 -2.0862
-1.1895 3.13 -0.6302
-1.0565 3.14 -2.3757
-0.8196 3.15 -0.6813
-0.5517 3.16 -2.6647
-0.3901 3.17 -0.7729
-0.08 3.18 -2.5678
0.2099 3.19 -0.7678
0.5471 3.2 -2.7148
0.7579 3.21 -0.8265
1.0828 3.22 -2.7237
1.3135 3.23 -0.9468
1.6551 3.24 -3.0803
1.7577 3.25 -1.1163
1.9658 3.26 -2.7165
2.0179 3.27 -1.3602
2.3356 3.28 -2.7032
2.2722 3.29 -1.5015
2.2934 3.3 -2.2517
2.06 3.31 -1.6759
1.6701 3.32 -2.2781
1.4688 3.33 -1.7481
1.4746 3.34 -2.0064
1.0864 3.35 -1.665
0.7513 3.36 -1.6429
0.4283 3.37 -1.8132
0.1125 3.38 -1.4839
-0.2127 3.39 -1.9071
-0.5448 3.4 -1.2146
-0.8849 3.41 -1.9843
-1.0523 3.42 -0.8972
-1.4 3.43 -1.8342
-1.4591 3.44 -0.5365
-1.6315 3.45 -2.1527
-1.9031 3.46 -0.2916
-1.7525 3.47 -2.0302
-1.8651 3.48 -0.012
-1.5917 3.49 -1.886
-1.6012 3.5 0.261
-1.44 3.51 -1.7641
-1.277 3.52 0.4459
-1.0573 3.53 -1.5764
-0.8722 3.54 0.6036
-0.488 3.55 -1.3063
-0.2409 3.56 0.7544
-0.0067 3.57 -0.836
0.2335 3.58 1.0044
0.4586 3.59 -0.6458
0.6421 3.6 1.083
0.7725 3.61 -0.2971
0.963 3.62 1.0577
1.0196 3.63 0.0511
1.031 3.64 1.1351
1.1746 3.65 0.4546
1.0541 3.66 1.1578
1.1086 3.67 0.7613
0.9206 3.68 1.1039
0.7443 3.69 1.2143
0.6433 3.7 1.2052
0.48 3.71 1.4247
0.3596 3.72 1.2344
0.1646 3.73 1.929
-0.0014 3.74 1.0675
-0.1578 3.75 2.3327
-0.2673 3.76 1.161
-0.3732 3.77 2.6017
-0.4749 3.78 0.9906
-0.5392 3.79 2.352
-0.5867 3.8 0.979
-0.6034 3.81 2.7945
-0.6443 3.82 1.05
-0.6672 3.83 2.9842
-0.603 3.84 0.9065
-0.5394 3.85 2.7341
-0.5127 3.86 0.9164
-0.4923 3.87 3.2201
-0.3892 3.88 1.0463
-0.3868 3.89 2.94
-0.3416 3.9 0.9855
-0.3199 3.91 2.9753
-0.3025 3.92 1.0311
-0.3482 3.93 2.6312
-0.3968 3.94 1.0268
-0.3971 3.95 2.4009
-0.4735 3.96 1.2091
-0.5506 3.97 2.372
-0.7019 3.98 1.3382
-0.8457 3.99 1.9391
-0.8656 4.0 1.3421
-1.1245 4.01 1.6263
-1.0112 4.02 1.1972
-1.1268 4.03 1.3161
-1.341 4.04 1.3227
-1.4191 4.05 0.8681
-1.2034 4.06 1.4621
-1.4328 4.07 0.5744
-1.2842 4.08 1.3949
-1.0708 4.09 0.2376
-1.1501 4.1 1.2775
-0.9457 4.11 -0.1113
-0.8216 4.12 1.342
-0.5954 4.13 -0.4679
-0.3544 4.14 1.0781
-0.1305 4.15 -0.7676
0.0745 4.16 1.058
0.3075 4.17 -0.987
0.4627 4.18 0.9352
0.676 4.19 -1.1226
0.7965 4.2 0.6268
0.8211 4.21 -1.4691
1.0681 4.22 0.4656
1.0692 4.23 -1.5915
0.9158 4.24 0.1842
0.9265 4.25 -1.764
0.8448 4.26 -0.1086
0.5984 4.27 -1.6685
0.4618 4.28 -0.4053
0.1934 4.29 -1.8032
-0.1037 4.3 -0.6818
-0.3923 4.31 -1.9963
-0.6805 4.32 -0.9896
-0.9552 4.33 -1.6915
-1.2365 4.34 -1.4799
-1.785 4.35 -1.8438
-1.8983 4.36 -1.5242
-2.2273 4.37 -1.7553
-2.3079 4.38 -1.9837
-2.6761 4.39 -1.6077
-2.4914 4.4 -2.1809
-2.6879 4.41 -1.3758
-2.5113 4.42 -2.4615
-2.3948 4.43 -1.4056
-2.3595 4.44 -2.5094
-2.2492 4.45 -1.2606
-2.0861 4.46 -2.5099
-2.0661 4.47 -1.2179
-1.5863 4.48 -2.9925
-1.4119 4.49 -1.0225
-0.9359 4.5 -3.068
-0.6423 4.51 -0.8605
-0.3341 4.52 -3.0878
-0.0553 4.53 -0.8701
0.2006 4.54 -3.0834
0.4817 4.55 -0.7678
0.6865 4.56 -2.9266
0.834 4.57 -0.7022
0.8854 4.58 -2.3556
1.0445 4.59 -0.6657
1.0682 4.6 -2.3086
0.9287 4.61 -0.6834
0.8201 4.62 -2.2143
0.6639 4.63 -0.6736
0.5446 4.64 -1.8237
0.2996 4.65 -0.6332
0.0396 4.66 -1.3877
-0.2461 4.67 -0.6894
-0.4471 4.68 -0.915
-0.7844 4.69 -0.695
-1.0581 4.7 -0.6733
-1.3578 4.71 -0.6337
-1.5091 4.72 -0.2226
-1.5481 4.73 -0.6301
-1.6734 4.74 0.1443
-2.0123 4.75 -0.6479
-1.9164 4.76 0.4858
-2.0577 4.77 -0.5105
-1.9288 4.78 0.8353
-2.2486 4.79 -0.4456
-1.9135 4.8 1.1294
-2.0775 4.81 -0.3407
-1.7874 4.82 1.5257
-1.6794 4.83 -0.2498
-1.454 4.84 1.6273
-1.4732 4.85 -0.1037
-1.2921 4.86 1.9794
-1.1068 4.87 0.0651
-1.0156 4.88 2.3124
-0.8119 4.89 0.2381
-0.7665 4.9 2.0588
-0.7154 4.91 0.4888
-0.6636 4.92 2.3299
-0.6097 4.93 0.6957
-0.6143 4.94 2.2808
-0.6154 4.95 0.9066
-0.7192 4.96 2.2752
-0.7317 4.97 1.2304
-0.8651 4.98 2.0664
-0.8628 4.99 1.4748
-0.9186 5.0 2.3827
-1.0662 5.01 1.566
-0.9876 5.02 1.9169
-1.0459 5.03 2.0932
-1.1795 5.04 1.8827
-1.0361 5.05 2.149
-1.0205 5.06 1.8243
-1.06 5.07 2.2677
-0.9445 5.08 1.445
-0.8536 5.09 2.2383
-0.7852 5.1 1.418
-0.6457 5.11 2.5694
-0.51 5.12 1.2001
-0.4011 5.13 2.6446
-0.337 5.14 0.8785
-0.2407 5.15 2.6864
-0.1568 5.16 0.7945
-0.1094 5.17 2.4012
-0.089 5.18 0.6426
-0.1031 5.19 2.7001
-0.134 5.2 0.5097
-0.2389 5.21 2.4322
-0.3226 5.22 0.3371
-0.4935 5.23 1.9874
-0.6679 5.24 0.216
-0.8112 5.25 1.8687
-1.0535 5.26 0.1191
-1.1725 5.27 1.7146
-1.5571 5.28 0.041
-1.8822 5.29 1.2568
-2.1128 5.3 -0.0155
-2.0845 5.31 1.0393
-2.3416 5.32 -0.056
-2.5799 5.33 0.6477
-2.4965 5.34 -0.0847
-2.4449 5.35 0.253
-2.6211 5.36 -0.1048
-2.6694 5.37 -0.1301
-2.5178 5.38 -0.1245
-2.3921 5.39 -0.5286
-2.2178 5.4 -0.1554
-2.1314 5.41 -0.9351
-1.6727 5.42 -0.2016
-1.4579 5.43 -1.1488
-1.1049 5.44 -0.2193
-0.8775 5.45 -1.6953
-0.5083 5.46 -0.2597
-0.2128 5.47 -1.9593
0.0846 5.48 -0.3413
0.3579 5.49 -2.309
0.5839 5.5 -0.4291
0.6985 5.51 -2.4573
0.9564 5.52 -0.4618
0.9007 5.53 -2.7919
1.1275 5.54 -0.6305
1.0944 5.55 -2.9265
0.8642 5.56 -0.8083
0.835 5.57 -2.8037
0.5443 5.58 -0.891
0.3811 5.59 -2.5038
0.0973 5.6 -0.9848
-0.1978 5.61 -2.7884
-0.5325 5.62 -1.1663
-0.7555 5.63 -2.4035
-1.239 5.64 -1.3861
-1.6149 5.65 -2.7072
-1.6617 5.66 -1.7008
-2.0896 5.67 -2.0728
-2.4754 5.68 -1.8041
-2.4574 5.69 -2.1007
-2.4825 5.7 -2.0004
-2.6329 5.71 -1.8528
-2.5746 5.72 -2.0906
-2.6941 5.73 -1.6259
-2.8757 5.74 -1.9309
-2.2555 5.75 -1.2942
-2.5718 5.76 -2.2629
-2.0455 5.77 -1.0675
-2.0277 5.78 -2.3979
-1.6199 5.79 -0.7255
-1.3544 5.8 -2.1293
-1.0487 5.81 -0.5592
-0.8168 5.82 -2.3611
-0.6828 5.83 -0.2978
-0.4495 5.84 -1.8885
-0.2078 5.85 -0.0455
-0.0391 5.86 -1.8843
0.1082 5.87 0.1521
0.2023 5.88 -1.7045
0.2536 5.89 0.3244
0.3069 5.9 -1.5682
0.2656 5.91 0.4861
0.2514 5.92 -1.342
0.1636 5.93 0.6573
0.0822 5.94 -0.9249
-0.0425 5.95 0.7634
-0.1616 5.96 -0.5925
-0.3246 5.97 0.8257
-0.4423 5.98 -0.2844
-0.5937 5.99 0.7751
-0.7212 6.0 0.1088
-0.7707 6.01 0.8639
-0.8398 6.02 0.4771
-0.8604 6.03 0.8446
-1.0237 6.04 0.8403
-1.0328 6.05 0.9148
-1.0798 6.06 1.1416
-1.0432 6.07 0.8702
-0.9828 6.08 1.4333
-0.8832 6.09 0.8685
-0.8849 6.1 1.785
-0.7309 6.11 0.8707
-0.751 6.12 2.3406
-0.7069 6.13 0.9047
-0.6126 6.14 2.2504
-0.548 6.15 0.8312
-0.5334 6.16 2.7231
-0.5959 6.17 0.9222
-0.528 6.18 2.7879
-0.6105 6.19 0.8258
-0.6671 6.2 2.8857
-0.8316 6.21 0.9148
-0.9276 6.22 3.1879
-0.9465 6.23 0.9164
-1.0 6.24 2.9298
-1.0626 6.25 1.0827
-1.3379 6.26 2.9716
-1.2816 6.27 1.1922
-1.4215 6.28 2.5776
-1.6332 6.29 1.2081
-1.4314 6.3 2.8057
-1.6051 6.31 1.2979
-1.59 6.32 2.42
-1.5588 6.33 1.3215
-1.4364 6.34 2.1958
-1.2249 6.35 1.3496
-0.9886 6.36 1.81
-0.8436 6.37 1.5741
-0.6155 6.38 1.3868
-0.4036 6.39 1.5676
-0.1311 6.4 1.2654
0.1165 6.41 1.7707
0.36 6.42 0.7902
0.5465 6.43 1.4854
0.7571 6.44 0.5101
0.9192 6.45 1.5936
1.1633 6.46 0.165
1.1651 6.47 1.4032
1.2165 6.48 -0.1268
1.1787 6.49 1.4157
1.2998 6.5 -0.3808
1.1995 6.51 1.2446
0.9534 6.52 -0.6859
0.8602 6.53 1.0914
0.5064 6.54 -0.961
0.31 6.55 1.0627
0.0051 6.56 -1.1671
-0.2954 6.57 0.8069
-0.6032 6.58 -1.2123
-0.9733 6.59 0.4885
-1.2152 6.6 -1.4915
-1.6305 6.61 0.2035
-1.596 6.62 -1.4571
-2.1409 6.63 -0.1327
-2.0948 6.64 -1.4163
-2.3961 6.65 -0.4281
-2.0768 6.66 -1.5111
-2.0698 6.67 -0.7808
-2.3591 6.68 -1.456
-2.1343 6.69 -1.1104
-1.8192 6.7 -1.5336
-1.814 6.71 -1.465
-1.5265 6.72 -1.6152
-1.105 6.73 -1.7589
-0.8047 6.74 -1.3552
-0.5374 6.75 -2.1501
-0.1901 6.76 -1.4206
0.125 6.77 -2.4411
0.4238 6.78 -1.3064
0.6898 6.79 -2.6869
1.0063 6.8 -1.2735
1.1627 6.81 -2.7012
1.3015 6.82 -1.0719
1.4324 6.83 -2.8368
1.7163 6.84 -1.1313
1.5809 6.85 -2.6704
1.5948 6.86 -1.0426
1.5972 6.87 -3.1373
1.3458 6.88 -0.9371
1.1842 6.89 -2.8564
1.0271 6.9 -0.9805
0.8421 6.91 -2.6834
0.6713 6.92 -0.8276
0.4016 6.93 -2.5124
0.1341 6.94 -0.9554
-0.0909 6.95 -2.5055
-0.336 6.96 -0.8536
-0.4983 6.97 -2.1136
-0.74 6.98 -0.9632
-0.8672 6.99 -1.8035
-1.0021 7.0 -0.9408
-1.0311 7.01 -1.6294
-0.984 7.02 -0.9227
-1.0395 7.03 -1.3282
-0.9232 7.04 -0.9854
-0.8752 7.05 -0.8543
-0.8307 7.06 -0.9809
-0.7053 7.07 -0.575
-0.6257 7.08 -0.8979
-0.4862 7.09 -0.1596
-0.2961 7.1 -0.8281
-0.1705 7.11 0.2214
-0.0402 7.12 -0.7847
0.0735 7.13 0.5179
0.1808 7.14 -0.7455
0.2529 7.15 0.8917
0.3421 7.16 -0.7628
0.3542 7.17 1.2343
0.3717 7.18 -0.5644
0.3479 7.19 1.4287
0.3647 7.2 -0.3927
0.3093 7.21 1.7241
0.2617 7.22 -0.2097
0.2151 7.23 1.7418
0.1696 7.24 -0.0201
0.1303 7.25 2.0933
0.1095 7.26 0.1924
0.0774 7.27 2.2332
0.0755 7.28 0.469
0.09 7.29 2.0516
0.1204 7.3 0.7864
0.1997 7.31 2.2491
0.2843 7.32 1.0136
0.342 7.33 2.2997
0.4285 7.34 1.1775
0.6415 7.35 2.0517
0.7067 7.36 1.6661
0.9511 7.37 1.9591
1.0313 7.38 1.6994
1.2145 7.39 1.6616
1.2944 7.4 2.1195
1.4431 7.41 1.8061
1.49 7.42 2.4903
1.546 7.43 1.5401
1.3173 7.44 2.2609
1.2633 7.45 1.4519
1.3286 7.46 2.5485
1.1948 7.47 1.2194
1.0752 7.48 2.6236
0.97 7.49 1.094
0.6451 7.5 2.8223
0.5039 7.51 0.8921
0.2589 7.52 2.6781
0.0003 7.53 0.7508
-0.2393 7.54 2.8731
-0.4472 7.55 0.6378
-0.6777 7.56 2.4266
-0.9405 7.57 0.5485
-1.0789 7.58 2.2914
-1.1482 7.59 0.4643
-1.1296 7.6 2.3883
-1.1776 7.61 0.3619
-1.2133 7.62 1.9377
-1.1807 7.63 0.3187
-0.8887 7.64 1.5393
-0.8259 7.65 0.2673
-0.527 7.66 1.3048
-0.2752 7.67 0.2619
-0.0108 7.68 1.0522
0.3242 7.69 0.2394
0.68 7.7 0.5817
0.968 7.71 0.2168
1.3352 7.72 0.2072
1.7443 7.73 0.2015
2.0491 7.74 -0.2097
2.1952 7.75 0.1844
2.1821 7.76 -0.6179
2.6414 7.77 0.1508
2.6711 7.78 -0.9953
2.8037 7.79 0.1024
2.8381 7.8 -1.4186
2.6556 7.81 0.0387
2.3276 7.82 -1.5887
2.1042 7.83 -0.0383
2.2507 7.84 -1.8498
1.7425 7.85 -0.14
1.6593 7.86 -2.146
1.3559 7.87 -0.2596
0.8593 7.88 -2.2276
0.5868 7.89 -0.3762
0.2855 7.9 -2.5017
0.0167 7.91 -0.5472
-0.2553 7.92 -2.5216
-0.4605 7.93 -0.7063
-0.6378 7.94 -2.7178
-0.7601 7.95 -0.908
-0.9329 7.96 -2.5619
-0.9146 7.97 -1.2137
-0.9321 7.98 -2.5923
-0.8077 7.99 -1.4011
-0.7108 8.0 -2.315
-0.6253 8.01 -1.5186
-0.4193 8.02 -2.4683
-0.2239 8.03 -1.7568
-0.0159 8.04 -1.9268
0.2349 8.05 -1.9576
0.4493 8.06 -1.9989
0.7599 8.07 -2.2167
0.9333 8.08 -1.6307
1.1704 8.09 -2.3681
1.288 8.1 -1.3741
1.6146 8.11 -2.1663
1.6092 8.12 -1.1374
1.6148 8.13 -2.2387
1.8004 8.14 -0.8804
1.8907 8.15 -2.4026
1.7342 8.16 -0.6777
1.724 8.17 -2.4915
1.6059 8.18 -0.4948
1.5769 8.19 -2.2455
1.6353 8.2 -0.2736
1.5838 8.21 -2.3161
1.3312 8.22 -0.1097
1.2291 8.23 -2.1221
1.0473 8.24 0.0534
1.0501 8.25 -1.6743
0.9288 8.26 0.19
0.8596 8.27 -1.5594
0.8699 8.28 0.2867
0.8543 8.29 -1.3593
0.8088 8.3 0.4156
0.7769 8.31 -0.8451
0.8064 8.32 0.4976
0.7871 8.33 -0.5728
0.9895 8.34 0.4756
0.9199 8.35 -0.2147
0.9606 8.36 0.4944
1.0243 8.37 0.1763
1.1291 8.38 0.534
1.266 8.39 0.6052
1.258 8.4 0.6092
1.1416 8.41 1.0117
1.1867 8.42 0.601
1.1634 8.43 1.2302
1.0895 8.44 0.5971
1.0556 8.45 1.6183
0.8866 8.46 0.5396
0.7982 8.47 1.7819
0.6577 8.48 0.5725
0.4722 8.49 2.3356
0.3655 8.5 0.6345
0.2386 8.51 2.6089
0.1087 8.52 0.6982
0.0076 8.53 2.8076
-0.0593 8.54 0.7335
-0.0988 8.55 2.731
-0.1188 8.56 0.7604
-0.0882 8.57 3.0695
-0.026 8.58 0.8415
0.0799 8.59 2.674
0.2033 8.6 1.0489
0.3964 8.61 2.5684
0.6045 8.62 1.1445
0.8898 8.63 2.6402
1.0877 8.64 1.1866
1.3367 8.65 2.6986
1.5279 8.66 1.2857
1.6976 8.67 2.5905
2.1766 8.68 1.4519
2.0779 8.69 2.0512
2.5409 8.7 1.6095
2.6645 8.71 1.8625
2.6985 8.72 1.7405
2.6969 8.73 1.7844
2.8444 8.74 1.6674
2.5731 8.75 1.4018
2.8898 8.76 1.673
2.2731 8.77 1.0371
2.4654 8.78 2.0268
2.1572 8.79 0.7231
1.7124 8.8 1.8736
1.3511 8.81 0.4451
1.2705 8.82 1.6997
0.8015 8.83 0.1496
0.527 8.84 1.754
0.1886 8.85 -0.1138
-0.0845 8.86 1.4825
-0.3874 8.87 -0.4006
-0.6128 8.88 1.5312
-0.8378 8.89 -0.624
-0.8217 8.9 1.4218
-0.9704 8.91 -0.8264
-0.9641 8.92 0.9852
-0.9626 8.93 -1.0185
-0.9562 8.94 0.8353
-0.7311 8.95 -1.0154
-0.5411 8.96 0.5043
-0.32 8.97 -1.2022
-0.0485 8.98 0.1807
0.247 8.99 -1.2517
0.5384 9.0 -0.1682
0.8491 9.01 -1.3801
1.1591 9.02 -0.5064
1.4003 9.03 -1.255
1.8577 9.04 -0.8081
1.9188 9.05 -1.256
2.4234 9.06 -1.2064
2.2418 9.07 -1.1344
2.3275 9.08 -1.4772
2.6821 9.09 -1.2549
2.8801 9.1 -2.049
2.4008 9.11 -1.1077
2.3384 9.12 -2.2412
2.2785 9.13 -1.1208
2.1015 9.14 -2.4411
2.2882 9.15 -1.0403
1.8593 9.16 -2.8242
1.4966 9.17 -0.9056
1.4499 9.18 -2.5971
1.2636 9.19 -0.9764
0.882 9.2 -2.6205
0.7737 9.21 -0.8716
0.556 9.22 -2.677
0.3236 9.23 -0.9692
0.1907 9.24 -3.1603
0.0943 9.25 -0.9199
0.0125 9.26 -2.9178
-0.0299 9.27 -0.9405
-0.0479 9.28 -2.7049
-0.028 9.29 -0.9485
0.0205 9.3 -2.466
0.0844 9.31 -1.0605
0.1878 9.32 -2.3506
0.3025 9.33 -1.1181
0.3745 9.34 -2.0205
0.475 9.35 -1.1775
0.591 9.36 -1.9522
0.6837 9.37 -1.0887
0.7494 9.38 -1.4808
0.8938 9.39 -1.2944
0.823 9.4 -1.1588
0.9185 9.41 -1.2615
0.8921 9.42 -0.7644
0.9217 9.43 -1.2565
0.9481 9.44 -0.478
0.8759 9.45 -1.3285
0.7252 9.46 -0.0854
0.7019 9.47 -1.1068
0.614 9.48 0.249
0.5699 9.49 -1.0735
0.5169 9.5 0.589
0.4637 9.51 -0.9694
0.4461 9.52 0.7815
0.4639 9.53 -0.8264
0.5008 9.54 1.2176
0.4866 9.55 -0.6748
0.5947 9.56 1.4738
0.6395 9.57 -0.5549
0.7164 9.58 1.5837
0.912 9.59 -0.3166
1.0083 9.6 1.7932
1.0488 9.61 -0.0793
1.2531 9.62 1.6996
1.5123 9.63 0.1977
1.6662 9.64 1.7674
1.6702 9.65 0.4903
1.7287 9.66 1.9849
1.7895 9.67 0.7999
1.7469 9.68 1.9919
1.8562 9.69 1.1096
1.6388 9.7 1.8368
1.6457 9.71 1.4759
1.4958 9.72 1.9364
1.3772 9.73 1.518
1.2981 9.74 1.7659
0.9426 9.75 2.1162
0.7362 9.76 1.6158
0.4816 9.77 2.3514
0.192 9.78 1.4344
-0.0906 9.79 2.3214
-0.3488 9.8 1.3822
-0.5726 9.81 2.7922
-0.7735 9.82 1.123
-0.9562 9.83 2.5763
-1.1243 9.84 1.0499
-1.1452 9.85 2.8454
-1.393 9.86 0.8895
-1.2125 9.87 2.7678
-1.2307 9.88 0.7939
-1.1802 9.89 2.8904
-1.0421 9.9 0.8225
-0.6889 9.91 2.6513
-0.4532 9.92 0.7135
-0.2034 9.93 2.5084
0.0742 9.94 0.667
0.4327 9.95 2.4245
0.7256 9.96 0.568
1.085 9.97 2.1733
1.2832 9.98 0.5394
1.7645 9.99 2.0625
1.9291 10.0 0.4937
2.0095 10.01 1.5587
2.4014 10.02 0.4943
2.1608 10.03 1.2332
2.1764 10.04 0.4728
2.4339 10.05 0.8437
2.4554 10.06 0.5036
2.2603 10.07 0.5213
2.0086 10.08 0.5265
1.9503 10.09 0.097
1.4241 10.1 0.5078
1.3363 10.11 -0.2747
1.0237 10.12 0.4425
0.6755 10.13 -0.6384
0.2897 10.14 0.3984
-0.0148 10.15 -0.8943
-0.3296 10.16 0.361
-0.5686 10.17 -1.2599
-0.8487 10.18 0.2818
-0.986 10.19 -1.6004
-1.2482 10.2 0.1483
-1.2474 10.21 -1.6781
-1.2787 10.22 0.0251
-1.4696 10.23 -1.9143
-1.2731 10.24 -0.1332
-1.327 10.25 -2.3396
-1.0921 10.26 -0.3412
-1.0184 10.27 -2.2565
-0.8457 10.28 -0.5077
-0.6839 10.29 -2.3562
-0.4497 10.3 -0.7301
-0.2281 10.31 -2.511
-0.0156 10.32 -0.9374
0.1903 10.33 -2.5673
0.3426 10.34 -1.0893
0.5286 10.35 -2.2753
0.7137 10.36 -1.4482
0.8333 10.37 -2.2853
0.855 10.38 -1.5161
0.8732 10.39 -2.0743
0.9752 10.4 -1.8927
0.9535 10.41 -1.7792
0.9317 10.42 -2.1873
0.8496 10.43 -1.7283
0.762 10.44 -2.1829
0.5625 10.45 -1.4435
0.4605 10.46 -2.4112
0.3963 10.47 -1.1908
0.2714 10.48 -2.4747
0.1858 10.49 -1.1172
0.0896 10.5 -2.5242
0.0095 10.51 -0.8583
-0.0543 10.52 -2.3767
-0.0941 10.53 -0.6561
-0.1248 10.54 -2.4357
-0.1205 10.55 -0.4556
-0.1091 10.56 -2.419
-0.0674 10.57 -0.3357
-0.0314 10.58 -2.2073
0.0157 10.59 -0.1929
0.0702 10.6 -2.0682
0.1146 10.61 -0.0761
0.153 10.62 -1.9775
0.2056 10.63 0.0229
0.2099 10.64 -1.6804
0.1955 10.65 0.0984
0.1924 10.66 -1.3459
0.1337 10.67 0.1673
0.061 10.68 -0.8321
-0.035 10.69 0.1916
-0.164 10.7 -0.4797
-0.295 10.71 0.232
-0.433 10.72 -0.1423
-0.6257 10.73 0.2326
-0.7172 10.74 0.2623
-0.8485 10.75 0.2566
-0.9768 10.76 0.6698
-1.2021 10.77 0.2401
-1.3972 10.78 1.0813
-1.4385 10.79 0.2828
-1.444 10.8 1.2791
-1.526 10.81 0.3242
-1.6289 10.82 1.8427
-1.3578 10.83 0.3103
-1.4793 10.84 1.9173
-1.2885 10.85 0.3744
-1.0397 10.86 2.1735
-0.8008 10.87 0.4398
-0.6757 10.88 2.5559
-0.3919 10.89 0.5277
-0.1168 10.9 2.5107
0.1495 10.91 0.6081
0.4263 10.92 2.5993
0.6869 10.93 0.7076
0.9239 10.94 2.486
0.9776 10.95 0.8268
1.1773 10.96 2.8386
1.3369 10.97 1.0075
1.3188 10.98 2.7564
1.3937 10.99 1.1313
1.4149 11.0 2.3449
1.3954 11.01 1.2407
1.0471 11.02 2.4024
0.8645 11.03 1.5
0.6405 11.04 2.2381
0.4346 11.05 1.5809
0.1115 11.06 2.0283
-0.1997 11.07 1.7095
-0.5424 11.08 1.6367
-0.8291 11.09 1.783
-1.1757 11.1 1.4517
-1.5301 11.11 1.7926
-1.8178 11.12 1.2542
-2.0367 11.13 1.9639
-2.083 11.14 0.9839
-2.3375 11.15 2.087
-2.4285 11.16 0.6702
-2.6984 11.17 1.9074
-2.3682 11.18 0.4033
-2.4775 11.19 1.8434
-2.2928 11.2 0.1214
-2.0745 11.21 1.7714
-2.0791 11.22 -0.1019
-1.7942 11.23 1.719
-1.3662 11.24 -0.2863
-1.2018 11.25 1.5097
-0.7656 11.26 -0.5063
-0.5432 11.27 1.4767
-0.2708 11.28 -0.5977
0.021 11.29 1.0314
0.2646 11.3 -0.7811
0.501 11.31 0.8229
0.6446 11.32 -0.8981
0.7603 11.33 0.5299
0.8254 11.34 -0.9967
0.9135 11.35 0.1451
0.9379 11.36 -0.9044
0.7463 11.37 -0.1975
0.7599 11.38 -0.9342
0.5657 11.39 -0.5361
0.4181 11.4 -0.9746
0.1914 11.41 -0.9389
-0.0109 11.42 -0.8736
-0.2502 11.43 -1.2329
-0.4967 11.44 -0.9972
-0.6928 11.45 -1.4648
-0.9518 11.46 -0.94
-1.033 11.47 -1.8518
-1.3444 11.48 -0.937
-1.4693 11.49 -2.1113
-1.3743 11.5 -0.8786
-1.5305 11.51 -2.3156
-1.7109 11.52 -0.9167
-1.6291 11.53 -2.8637
-1.5224 11.54 -0.8369
-1.4198 11.55 -2.962
-1.5084 11.56 -0.9047
-1.5327 11.57 -2.6591
-1.2355 11.58 -0.8679
-1.2735 11.59 -2.8449
-1.0361 11.6 -0.8233
-1.1069 11.61 -2.8117
-0.9935 11.62 -0.9332
-0.8242 11.63 -2.6128
-0.8799 11.64 -1.1192
-0.8673 11.65 -2.7204
-0.8809 11.66 -0.9962
-0.775 11.67 -2.615
-0.8914 11.68 -1.2009
-0.8764 11.69 -2.4061
-1.0059 11.7 -1.1602
-1.091 11.71 -1.9182
-1.1422 11.72 -1.4281
-1.2258 11.73 -1.7289
-1.2304 11.74 -1.3438
-1.3729 11.75 -1.4206
-1.3568 11.76 -1.4525
-1.3769 11.77 -0.9323
-1.2952 11.78 -1.3991
-1.3243 11.79 -0.6632
-1.2289 11.8 -1.4189
-1.2302 11.81 -0.3275
-0.9761 11.82 -1.383
-0.86 11.83 -0.0339
-0.8095 11.84 -1.42
-0.6792 11.85 0.2843
-0.5078 11.86 -1.298
-0.2901 11.87 0.5267
-0.1527 11.88 -1.2932
-0.0155 11.89 0.8731
0.1066 11.9 -1.0436
0.1988 11.91 1.0012
0.2619 11.92 -0.9001
0.3178 11.93 1.2362
0.3157 11.94 -0.6528
0.2667 11.95 1.4077
0.187 11.96 -0.3713
0.0618 11.97 1.407
-0.1044 11.98 -0.0952
-0.3091 11.99 1.5413
-0.5491 12.0 0.2077
-0.8395 12.01 1.4655
-1.0702 12.02 0.4921
-1.3383 12.03 1.6237
-1.7461 12.04 0.7997
-1.978 12.05 1.6661
-2.0824 12.06 1.2501
-2.1736 12.07 1.4069
-2.6718 12.08 1.4567
-2.7668 12.09 1.5599
-3.0793 12.1 1.6046
-3.0634 12.11 1.3856
-2.6404 12.12 2.1356
-2.5606 12.13 1.3157
-2.5484 12.14 2.1808
-2.415 12.15 1.1855
-2.2433 12.16 2.3578
-2.1245 12.17 1.2126
-1.9413 12.18 2.4492
-1.4016 12.19 1.0912
-1.1752 12.2 2.5262
-0.7997 12.21 0.8911
-0.477 12.22 3.116
-0.2087 12.23 0.93
0.0847 12.24 3.0738
0.3315 12.25 0.7798
0.5717 12.26 2.861
0.7722 12.27 0.7589
0.9078 12.28 2.8697
0.9683 12.29 0.7616
0.8744 12.3 2.4445
0.8948 12.31 0.8163
0.8442 12.32 2.3693
0.6934 12.33 0.782
0.5409 12.34 1.922
0.2394 12.35 0.8156
0.0 12.36 1.7198
-0.2642 12.37 0.8348
-0.5299 12.38 1.47
-0.8496 12.39 0.8212
-1.1474 12.4 1.1433
-1.6039 12.41 0.8039
-1.6704 12.42 0.8334
-2.118 12.43 0.7556
-2.0922 12.44 0.3717
-2.395 12.45 0.815
-2.5362 12.46 0.0233
-2.5195 12.47 0.7578
-2.2703 12.48 -0.327
-2.4281 12.49 0.6847
-2.5167 12.5 -0.6644
-2.1111 12.51 0.6151
-2.0875 12.52 -0.9053
-1.9741 12.53 0.6394
-1.879 12.54 -1.4028
-1.5193 12.55 0.501
-1.3819 12.56 -1.6496
-1.0659 12.57 0.3462
-1.0489 12.58 -1.9168
-0.7439 12.59 0.143
-0.5656 12.6 -1.863
-0.457 12.61 -0.044
-0.3732 12.62 -1.8616
-0.284 12.63 -0.2635
-0.2388 12.64 -2.0389
-0.2039 12.65 -0.4674
-0.2185 12.66 -2.254
-0.2443 12.67 -0.7322
-0.2951 12.68 -2.1856
-0.3643 12.69 -0.9583
-0.4007 12.7 -2.2614
-0.5258 12.71 -1.217
-0.658 12.72 -2.0152
-0.7444 12.73 -1.5161
-0.8205 12.74 -1.948
-0.8576 12.75 -1.8634
-0.9281 12.76 -1.7845
-0.8836 12.77 -2.1729
-0.8489 12.78 -1.7456
-0.927 12.79 -2.4153
-0.8662 12.8 -1.5497
-0.7542 12.81 -2.3358
-0.7841 12.82 -1.1562
-0.6968 12.83 -2.3524
-0.6373 12.84 -1.0883
-0.5525 12.85 -2.826
-0.4843 12.86 -0.8634
-0.3904 12.87 -2.4127
-0.3747 12.88 -0.775
-0.3277 12.89 -2.5084
-0.3303 12.9 -0.5685
-0.4067 12.91 -2.416
-0.4426 12.92 -0.546
-0.4833 12.93 -2.5088
-0.6017 12.94 -0.4126
-0.6541 12.95 -2.2121
-0.843 12.96 -0.2974
-1.0337 12.97 -2.0914
-1.2597 12.98 -0.2068
-1.4132 12.99 -1.636
-1.5064 13.0 -0.1878
-1.8115 13.01 -1.4534
-1.8415 13.02 -0.1274
-1.9862 13.03 -1.2171
-1.8735 13.04 -0.1117
-2.1001 13.05 -0.7405
-2.1254 13.06 -0.0946
-2.1068 13.07 -0.4386
-2.1564 13.08 -0.0795
-2.0198 13.09 -0.0603
-1.8331 13.1 -0.0717
-1.6193 13.11 0.3362
-1.2667 13.12 -0.0571
-1.0563 13.13 0.7669
-0.8022 13.14 -0.04
-0.556 13.15 0.9688
-0.206 13.16 -0.006
0.0556 13.17 1.2986
0.3385 13.18 0.0417
0.5981 13.19 1.6916
0.8711 13.2 0.1025
0.9074 13.21 1.9813
1.1667 13.22 0.1824
1.2013 13.23 2.0238
1.3418 13.24 0.2927
1.3487 13.25 2.3966
1.3162 13.26 0.3882
1.0891 13.27 2.6827
0.9959 13.28 0.5752
0.6324 13.29 2.7156
0.4014 13.3 0.6835
0.1619 13.31 2.5107
-0.1562 13.32 0.9432
-0.523 13.33 2.7103
-0.795 13.34 1.0471
-1.1034 13.35 2.5985
-1.5169 13.36 1.3777
-1.5858 13.37 2.2995
-1.8085 13.38 1.5798
-2.1363 13.39 2.0754
-2.5119 13.4 1.7215
-2.6332 13.41 1.9715
-2.4591 13.42 1.7228
-2.3473 13.43 1.6444
-2.5713 13.44 1.8821
-2.3263 13.45 1.5867
-1.9599 13.46 2.0413
-1.8232 13.47 1.2067
-1.6197 13.48 2.2388
-1.2284 13.49 0.9903
-0.9231 13.5 2.3
-0.6638 13.51 0.8549
-0.3764 13.52 2.1008
-0.1091 13.53 0.5427
0.1992 13.54 2.3834
0.4466 13.55 0.3524
0.6371 13.56 2.1679
0.9049 13.57 0.1317
0.9391 13.58 2.1768
1.1269 13.59 -0.0518
1.2252 13.6 1.7652
1.1008 13.61 -0.2236
1.1234 13.62 1.7087
0.9824 13.63 -0.3685
0.9249 13.64 1.4644
0.729 13.65 -0.493
0.6097 13.66 1.2162
0.4441 13.67 -0.5798
0.2902 13.68 0.7509
0.0722 13.69 -0.5368
-0.1155 13.7 0.491
-0.2945 13.71 -0.5739
-0.4802 13.72 0.0926
-0.5829 13.73 -0.6304
-0.6774 13.74 -0.2661
-0.7129 13.75 -0.6905
-0.8007 13.76 -0.6798
-0.8976 13.77 -0.6024
-0.8481 13.78 -1.0077
-0.784 13.79 -0.6038
-0.747 13.8 -1.4823
-0.7113 13.81 -0.6124
-0.61 13.82 -1.6436
-0.4833 13.83 -0.6699
-0.4237 13.84 -2.0601
-0.3376 13.85 -0.6464
-0.2689 13.86 -2.3826
-0.1823 13.87 -0.6882
-0.1303 13.88 -2.6488
-0.0921 13.89 -0.6615
-0.0693 13.9 -2.6086
-0.0673 13.91 -0.6814
-0.09 13.92 -2.9644
-0.1199 13.93 -0.7811
-0.155 13.94 -2.9457
-0.2048 13.95 -0.7729
-0.2967 13.96 -3.0166
-0.3484 13.97 -0.837
-0.3696 13.98 -2.7533
-0.4484 13.99 -1.0261
-0.4641 14.0 -2.509
-0.5636 14.01 -1.0974
-0.4842 14.02 -2.6762
-0.4378 14.03 -1.3364
-0.4731 14.04 -2.0799
-0.344 14.05 -1.3533
-0.2661 14.06 -1.9166
-0.1104 14.07 -1.5652
0.0364 14.08 -1.7245
0.2154 14.09 -1.4679
0.3917 14.1 -1.6246
0.6176 14.11 -1.7057
0.8248 14.12 -1.1119
0.9251 14.13 -1.6009
1.1577 14.14 -0.9448
1.3284 14.15 -1.7644
1.4785 14.16 -0.5509
1.477 14.17 -1.7922
1.4177 14.18 -0.3063
1.4624 14.19 -1.5365
1.6912 14.2 0.0073
1.4931 14.21 -1.4607
1.503 14.22 0.289
1.1831 14.23 -1.3534
1.0291 14.24 0.5539
0.8832 14.25 -1.3577
0.5813 14.26 0.6779
0.2826 14.27 -1.1513
0.0035 14.28 0.8321
-0.2628 14.29 -0.9661
-0.5105 14.3 1.1215
-0.8502 14.31 -0.718
-0.9431 14.32 1.2073
-1.2898 14.33 -0.3845
-1.3973 14.34 1.3766
-1.6311 14.35 -0.0921
-1.6221 14.36 1.2208
-1.7343 14.37 0.2465
-1.5861 14.38 1.2889
-1.4601 14.39 0.5356
-1.3683 14.4 1.3136
-1.0275 14.41 0.9489
-0.8137 14.42 1.1739
-0.5478 14.43 1.1437
-0.2055 14.44 1.2331
0.118 14.45 1.5649
0.4258 14.46 1.202
0.859 14.47 1.8099
1.1307 14.48 1.0174
1.3478 14.49 2.1699
1.6558 14.5 1.118
1.9918 14.51 2.293
2.2345 14.52 1.0873
2.198 14.53 2.7757
2.6191 14.54 0.8869
2.6512 14.55 2.4675
2.4127 14.56 0.8926
2.1829 14.57 2.5658
2.1458 14.58 0.7701
1.8774 14.59 3.0082
1.8032 14.6 0.8645
1.7079 14.61 3.0768
1.2691 14.62 0.8776
1.0918 14.63 2.5557
0.7665 14.64 0.8728
0.4283 14.65 2.4744
0.2008 14.66 0.8315
-0.0612 14.67 2.422
-0.2979 14.68 0.8428
-0.4368 14.69 2.4018
-0.6094 14.7 0.9015
-0.7333 14.71 1.8883
-0.8049 14.72 0.9947
-0.7493 14.73 1.8185
-0.8461 14.74 0.9034
-0.6879 14.75 1.366
-0.5647 14.76 1.0975
-0.4944 14.77 1.0818
-0.317 14.78 1.0093
-0.1388 14.79 0.6678
0.041 14.8 1.157
0.2236 14.81 0.2869
0.3988 14.82 1.0945
0.6289 14.83 -0.0546
0.7332 14.84 1.0004
0.8579 14.85 -0.3876
1.003 14.86 0.982
1.1353 14.87 -0.7435
1.1454 14.88 0.847
1.4215 14.89 -1.01
1.4119 14.9 0.8186
1.326 14.91 -1.1281
1.2384 14.92 0.6902
1.2524 14.93 -1.337
1.1342 14.94 0.4757
1.1269 14.95 -1.5768
1.0744 14.96 0.2453
1.0848 14.97 -1.8213
0.9338 14.98 0.0179
0.8265 14.99 -1.8119
0.8108 15.0 -0.256
0.7466 15.01 -2.024
0.7906 15.02 -0.4821
0.8061 15.03 -1.9977
0.8133 15.04 -0.8453
0.8492 15.05 -1.8773
1.0026 15.06 -1.0579
1.1059 15.07 -1.7603
1.0334 15.08 -1.2722
1.3126 15.09 -1.8928
1.2334 15.1 -1.6751
1.3949 15.11 -1.7079
1.3129 15.12 -1.8668
1.4362 15.13 -1.4355
1.342 15.14 -1.9802
1.5892 15.15 -1.3881
1.4417 15.16 -2.2183
1.4802 15.17 -1.3446
1.42 15.18 -2.3487
1.0728 15.19 -1.0152
1.1357 15.2 -2.3751
0.8958 15.21 -0.94
0.7664 15.22 -2.4457
0.5062 15.23 -0.8289
0.3519 15.24 -2.5468
0.1467 15.25 -0.7081
-0.0191 15.26 -2.5974
-0.191 15.27 -0.6761
-0.2862 15.28 -2.782
-0.4526 15.29 -0.57
-0.4446 15.3 -2.2057
-0.4905 15.31 -0.5048
-0.5218 15.32 -2.1927
-0.4732 15.33 -0.401
-0.3579 15.34 -1.8673
-0.2046 15.35 -0.3628
-0.0208 15.36 -1.5716
0.1848 15.37 -0.3744
0.4814 15.38 -1.5314
0.7483 15.39 -0.3979
1.0014 15.4 -1.0613
1.3241 15.41 -0.3896
1.5148 15.42 -0.7602
2.0255 15.43 -0.3891
2.2261 15.44 -0.3514
2.5546 15.45 -0.3593
2.4683 15.46 0.0255
2.7408 15.47 -0.3795
2.8341 15.48 0.3843
2.8654 15.49 -0.3441
2.9896 15.5 0.7416
3.0314 15.51 -0.3428
3.009 15.52 1.0776
2.5727 15.53 -0.2555
2.459 15.54 1.3255
2.2525 15.55 -0.1978
1.9905 15.56 1.5486
1.3748 15.57 -0.1004
1.2771 15.58 1.7928
0.8385 15.59 0.0189
0.5265 15.6 2.0651
0.2029 15.61 0.1504
-0.0961 15.62 2.2135
-0.359 15.63 0.3203
-0.5692 15.64 2.1992
-0.7921 15.65 0.4814
-0.7617 15.66 2.4646
-0.9197 15.67 0.756
-0.9061 15.68 2.238
-0.801 15.69 0.9213
-0.7169 15.7 2.1124
-0.5887 15.71 1.1894
-0.3955 15.72 2.3584
-0.2003 15.73 1.4596
0.0617 15.74 2.0536
0.3279 15.75 1.5056
0.6521 15.76 2.1124
0.9177 15.77 1.8699
1.1329 15.78 1.5783
1.3518 15.79 1.9515
1.5486 15.8 1.6878
2.086 15.81 2.2666
2.0913 15.82 1.3555
2.0432 15.83 2.1185
2.2799 15.84 1.0629
2.3961 15.85 2.2277
2.4669 15.86 0.8434
2.2591 15.87 2.4789
2.3385 15.88 0.719
2.3732 15.89 2.3525
2.0755 15.9 0.518
1.7309 15.91 2.453
1.7605 15.92 0.3553
1.5249 15.93 2.1848
1.2902 15.94 0.1674
1.2266 15.95 2.118
1.0113 15.96 0.0262
0.7927 15.97 1.7444
0.7703 15.98 -0.0886
0.559 15.99 1.6393
0.4904 16.0 -0.1677
0.4808 16.01 1.2798
0.4733 16.02 -0.267
0.3987 16.03 1.0246
0.4396 16.04 -0.2834
0.5153 16.05 0.8248
0.4999 16.06 -0.3066
0.6076 16.07 0.3594
0.6485 16.08 -0.3397
0.7795 16.09 0.0264
0.8497 16.1 -0.3218
0.9122 16.11 -0.3374
0.8968 16.12 -0.3237
0.8431 16.13 -0.7557
0.9393 16.14 -0.3184
0.958 16.15 -1.1579
0.8244 16.16 -0.3599
0.8617 16.17 -1.4427
0.8354 16.18 -0.3572
0.6615 16.19 -1.8194
0.6812 16.2 -0.3806
0.5638 16.21 -2.1175
0.4837 16.22 -0.3983
0.3735 16.23 -2.34
0.3107 16.24 -0.4261
0.2388 16.25 -2.5398
0.215 16.26 -0.5531
0.2144 16.27 -2.3461
0.2303 16.28 -0.548
0.2933 16.29 -2.608
0.3585 16.3 -0.7249
0.4556 16.31 -2.4257
0.5742 16.32 -0.7605
0.7343 16.33 -2.5497
0.9968 16.34 -0.978
1.0783 16.35 -2.4586
1.2195 16.36 -1.0972
1.6364 16.37 -2.6692
1.6698 16.38 -1.1632
1.8851 16.39 -2.3173
1.9069 16.4 -1.2239
2.2257 16.41 -2.0027
2.4458 16.42 -1.4716
2.503 16.43 -1.7657
2.535 16.44 -1.7188
2.419 16.45 -1.6783
2.0002 16.46 -1.7331
2.1405 16.47 -1.3492
1.7699 16.48 -1.9355
1.758 16.49 -0.9693
1.5923 16.5 -1.9289
1.1168 16.51 -0.808
0.9578 16.52 -1.8497
0.5241 16.53 -0.5275
0.2811 16.54 -1.9281
-0.0282 16.55 -0.2215
-0.3216 16.56 -1.7056
-0.6084 16.57 0.0312
-0.7852 16.58 -1.6861
-0.9564 16.59 0.2649
-1.1142 16.6 -1.4795
-1.1138 16.61 0.466
-1.2325 16.62 -1.4272
-1.1884 16.63 0.6882
-1.2775 16.64 -1.3541
-0.9498 16.65 0.8033
-0.8767 16.66 -0.9265
-0.6162 16.67 0.9144
-0.3416 16.68 -0.7613
-0.0707 16.69 1.0069
0.2561 16.7 -0.4146
0.6227 16.71 0.9113
0.9822 16.72 -0.0664
1.1549 16.73 0.9788
1.5271 16.74 0.2537
1.7296 16.75 0.9321
2.1762 16.76 0.6771
2.2601 16.77 0.9478
2.1462 16.78 0.9972
2.5199 16.79 1.0324
2.5425 16.8 1.2167
2.2633 16.81 0.856
2.2928 16.82 1.6578
2.2516 16.83 0.822
2.1505 16.84 2.017
1.9616 16.85 0.9331
1.6275 16.86 2.3574
1.4471 16.87 0.7963
0.9813 16.88 2.613
0.7542 16.89 0.7574
0.5126 16.9 2.569
0.1957 16.91 0.7773
-0.0455 16.92 2.4723
-0.2643 16.93 0.7392
-0.4426 16.94 2.5377
-0.6615 16.95 0.7783
-0.7407 16.96 2.8242
-0.8268 16.97 0.795
-0.8614 16.98 2.5901
-0.8635 16.99 0.7645
-0.7882 17.0 2.6259
-0.7599 17.01 0.8795
-0.6082 17.02 2.2953
-0.5964 17.03 0.9748
-0.4103 17.04 2.3879
-0.2639 17.05 1.0856
-0.0793 17.06 2.2248
0.0831 17.07 1.1558
0.2279 17.08 1.7882
0.3653 17.09 1.195
0.4556 17.1 1.3953
0.6184 17.11 1.2618
0.6424 17.12 1.1495
0.7782 17.13 1.4023
0.7426 17.14 0.904
0.7622 17.15 1.3067
0.7108 17.16 0.5133
0.7205 17.17 1.2182
0.6435 17.18 0.2131
0.5348 17.19 1.2509
0.5124 17.2 -0.1275
0.4186 17.21 1.3636
0.3146 17.22 -0.3841
0.2619 17.23 1.1953
0.241 17.24 -0.634
0.1771 17.25 1.1682
0.1581 17.26 -0.8451
0.1897 17.27 0.9017
0.1883 17.28 -1.141
0.2065 17.29 0.7307
0.2652 17.3 -1.2031
0.3371 17.31 0.5931
0.4135 17.32 -1.4993
0.5134 17.33 0.3345
0.5336 17.34 -1.5017
0.6217 17.35 0.0409
0.6778 17.36 -1.5241
0.764 17.37 -0.2496
0.7983 17.38 -1.6807
0.8452 17.39 -0.5751
0.8116 17.4 -1.6755
0.7243 17.41 -0.8256
0.6336 17.42 -1.5454
0.5949 17.43 -1.2503
0.4351 17.44 -1.5828
0.2554 17.45 -1.4413
0.0708 17.46 -1.3363
-0.1389 17.47 -1.5634
-0.3517 17.48 -1.3496
-0.6202 17.49 -1.8281
-0.7607 17.5 -1.3159
-1.0351 17.51 -2.4234
-1.1604 17.52 -1.0788
-1.3929 17.53 -2.6056
-1.3589 17.54 -0.9938
-1.6184 17.55 -2.7052
-1.5612 17.56 -0.9655
-1.7548 17.57 -2.4099
-1.686 17.58 -0.8541
-1.5053 17.59 -2.5046
-1.3645 17.6 -0.6908
-1.3145 17.61 -2.6991
-0.9677 17.62 -0.716
-0.8149 17.63 -2.404
-0.4868 17.64 -0.5678
-0.1675 17.65 -2.4279
0.1085 17.66 -0.6487
0.3944 17.67 -2.1505
0.7177 17.68 -0.5261
1.0161 17.69 -2.152
1.2057 17.7 -0.5519
1.4931 17.71 -2.0547
1.5362 17.72 -0.6213
1.5274 17.73 -1.6663
1.8575 17.74 -0.5968
1.6644 17.75 -1.3824
1.5605 17.76 -0.6714
1.5458 17.77 -0.9277
1.2807 17.78 -0.5886
1.1078 17.79 -0.6054
0.8341 17.8 -0.7131
0.6359 17.81 -0.2465
0.2892 17.82 -0.6565
-0.0226 17.83 0.1068
-0.3818 17.84 -0.6966
-0.7169 17.85 0.4989
-0.9443 17.86 -0.662
-1.2565 17.87 0.7976
-1.4536 17.88 -0.5879
-1.7912 17.89 1.1578
-1.8651 17.9 -0.4983
-2.114 17.91 1.5039
-2.2723 17.92 -0.3585
-2.4441 17.93 1.5915
-2.2812 17.94 -0.2617
-2.1091 17.95 1.973
-1.976 17.96 -0.107
-2.0298 17.97 2.0811
-1.7587 17.98 0.0661
-1.452 17.99 2.0594
-1.2682 18.0 0.2886
-0.9521 18.01 2.3196
-0.6908 18.02 0.4689
-0.3896 18.03 2.2974
-0.134 18.04 0.7108
0.0882 18.05 1.9028
0.2922 18.06 0.923
0.475 18.07 1.9096
0.6377 18.08 1.1663
0.72 18.09 2.0552
0.7368 18.1 1.5032
0.7692 18.11 1.7013
0.654 18.12 1.5274
0.6029 18.13 1.606
0.5064 18.14 2.0795
0.3936 18.15 1.5359
0.2513 18.16 1.883
0.1026 18.17 1.2077
-0.0683 18.18 2.1687
-0.2526 18.19 1.1284
-0.3979 18.2 2.5132
-0.5237 18.21 0.9551
-0.694 18.22 2.3254
-0.8691 18.23 0.7668
